File: Pd_foil_standard_example_XANES_EXAFS/Pd_K_standard.dat.nor
# XDI/1.0 Athena/0.9.26
# Element.edge:                  K
# Element.symbol:                Pd
# Column.1:                      energy eV
# Column.2:                      norm
# Column.3:                      nbkg
# Column.4:                      flat
# Column.5:                      fbkg
# Column.6:                      nder
# Column.7:                      nsec
# Athena.e0:                     24343.2
# Athena.eshift:                 0
# Athena.rbkg:                   1.0
# Athena.importance:             1
# Athena.standard:               None
# Athena.bkg_kweight:            2
# Athena.edge_step:              1.67204
# Athena.fixed_step:             no
# Athena.pre_edge_range:         -150.000 -60.000
# Athena.pre_edge_line:          -1.310798 + 6.67811e-006 * E
# Athena.normalization_range:    200 1420.350
# Athena.post_edge_polynomial:   44.4093 - 0.00319638 * E + 5.72479e-08 * E^2 + 0 * E^3
# Athena.spline_range_energy:    0.000 857.246
# Athena.clamps:                 0 24
# Athena.spline_range_k:         0.000 15.000
# Athena.kweight:                2
# Athena.window:                 hanning
# Athena.phase_correction:       no
# Athena.k_range:                3.000 17.976
# Athena.dk:                     1
# Athena.r_range:                1 4
# Athena.dr:                     0.0
# Athena.window:                 Kaiser-Bessel
# Athena.plot_multiplier:        1
# Athena.y_offset:               0
# ///
#------------------------
#   e         norm        nbkg        flat        fbkg        nder        nsec
  24024.123       0.0127146   0.0127146   0.0127146   0.0127146  -8.7137e-05   1.49709e-07
  24065.841       0.00953254   0.00953254   0.00953254   0.00953254  -8.38593e-05  -9.49764e-07
  24107.666       0.00637991   0.00637991   0.00637991   0.00637991  -6.45904e-05  -4.39963e-07
  24149.624       0.00340738   0.00340738   0.00340738   0.00340738  -5.85016e-05   1.81353e-07
  24191.504       0.000889082   0.000889082   0.000889082   0.000889082  -4.59387e-05   7.34038e-07
  24233.862      -0.000611407  -0.000611407  -0.000611407  -0.000611407  -1.7136e-05   1.8053e-06
  24276.385       0.000653534   0.000653534   0.000653534   0.000653534   0.000117335   8.89969e-06
  24313.164       0.0130267   0.0130267   0.0130267   0.0130267   0.00065942   0.000162322
  24315.817       0.0152834   0.0152834   0.0152834   0.0152834   0.000943618   0.000684697
  24318.366       0.0180441   0.0180441   0.0180441   0.0180441   0.00149196   0.000737813
  24320.864       0.0215275   0.0215275   0.0215275   0.0215275   0.00185186   0.00145219
  24323.363       0.0259372   0.0259372   0.0259372   0.0259372   0.00211819   0.00115118
  24325.757       0.0318755   0.0318755   0.0318755   0.0318755   0.00300729  -0.000796024
  24328.361       0.0409857   0.0409857   0.0409857   0.0409857   0.00360015  -0.000848322
  24331.017       0.0566811   0.0566811   0.0566811   0.0566811   0.00751857   0.00200563
  24333.518       0.0831861   0.0831861   0.0831861   0.0831861   0.0146984   0.00525574
  24336.175       0.135527       0.135527       0.135527       0.135527       0.0252415   0.00501997
  24338.781       0.215435       0.215435       0.215435       0.215435       0.0384158   0.0146298
  24341.283       0.326467       0.326467       0.326467       0.326467       0.0493329  -0.000538417
  24343.577       0.436916       0.403245       0.437007       0.403335       0.0452241  -0.00320099
  24346.132       0.548775       0.563451       0.549501       0.564177       0.0372162   0.00123009
  24348.949       0.662476       0.700726       0.663902       0.702151       0.037632   0.000987812
  24351.453       0.763214       0.792494       0.765261       0.794542       0.0391368   0.00699148
  24354.115       0.871214       0.863326       0.873921       0.866033       0.0377757  -0.0113269
  24356.411       0.940383       0.905859       0.94366       0.909135       0.0235024  -0.0111245
  24359.178       0.976258       0.938711       0.98022       0.942674       0.00446496  -0.00429848
  24361.580       0.974037       0.954773       0.978594       0.95933      -0.00439313  -0.0010076
  24364.139       0.957237       0.963209       0.962427       0.968399      -0.00771305  -0.00102594
  24366.855       0.934971       0.966927       0.940832       0.972788      -0.00704675   0.000470761
  24369.363       0.919709       0.969284       0.926189       0.975765      -0.00267978   0.00326779
  24371.872       0.922669       0.971515       0.929769       0.978615       0.00573694   0.00333314
  24374.433       0.945154       0.973667       0.952885       0.981398       0.0141394   0.00974805
  24376.890       0.984381       0.975613       0.992718       0.98395       0.018773   0.00464297
  24379.557        1.03786       0.977598        1.04686       0.986592       0.0184738  -0.00352517
  24382.015        1.07941       0.979313        1.08901       0.988912       0.00999682  -0.00532988
  24384.631        1.08013       0.98102        1.09037       0.991263      -0.0112383  -0.00743001
  24387.247        1.03148       0.982609        1.04236       0.993495      -0.0241649  -0.000821155
  24389.812       0.971177       0.984055       0.982693       0.995571      -0.0217812   0.00215198
  24392.377       0.927743       0.985394       0.939889       0.997539      -0.0116728   0.00458204
  24394.942       0.913975       0.986629       0.926749       0.999403      -5.68932e-05   0.00273908
  24397.613       0.922541       0.987806       0.93597        1.00124       0.00512637   0.000979551
  24399.970       0.936553       0.988756       0.950559        1.00276       0.00533476  -0.000293736
  24402.485       0.950694       0.989681       0.965316        1.0043       0.00574259  -0.00307999
  24411.330       0.985383       0.992243        1.00217        1.00903       0.00495103   0.000673105
  24424.396        1.06376       0.99427        1.08373        1.01424      -0.00295749  -0.00243553
  24437.814       0.954705       0.994542       0.977927        1.01776      -0.00237046   0.00137936
  24451.122       0.981721       0.993387        1.00816        1.01983       0.00283165  -0.000103111
  24464.376        1.01319       0.991058        1.04282        1.02069       0.00145955  -0.000310051
  24477.476       0.990509       0.98778        1.02329        1.02056      -0.00471146  -0.000102231
  24495.370       0.96619       0.982061        1.00324        1.01911       0.00318892   0.000190131
  24513.750       0.995088       0.975129        1.03651        1.01655      -0.000345903  -0.000139146
  24532.226       0.972536       0.96757        1.01832        1.01336      -0.0016138  -6.32085e-05
  24550.762       0.934939       0.959895       0.985085        1.01004      -0.000889274   0.000182446
  24569.352       0.949495       0.952589        1.00399        1.00708       0.00187547  -3.94584e-05
  24588.718       0.972827       0.945577        1.03182        1.00457       0.000285564  -0.000146373
  24612.713       0.927319       0.937647       0.991861        1.00219      -0.00194339   0.000162142
  24636.565       0.910793       0.930479       0.980808        1.00049      -0.000150036   4.86079e-05
  24660.433       0.936324       0.923895        1.01178       0.999347       0.00131044  -7.9276e-05
  24684.543       0.936762       0.917716        1.01767       0.998621      -0.00146104  -0.000119737
  24708.403       0.896838       0.911944       0.9831       0.998207      -0.000312769   0.000122487
  24734.680       0.895066       0.905835       0.987184       0.997952      -0.000287789   3.80923e-05
  24763.725       0.908965       0.89927        1.0075       0.997804       0.000483575  -3.94405e-05
  24792.841       0.902419       0.892864        1.00733       0.997772      -0.00131662  -7.71389e-05
  24821.912       0.877001       0.886626       0.988215       0.99784       0.000104174  -1.52043e-05
  24851.186       0.877993       0.880486       0.995499       0.997992       0.000178979   1.8847e-05
  24880.674       0.881838       0.874429        1.00562       0.998214      -0.000118147  -1.87991e-05
  24913.569       0.868181       0.867802       0.9989       0.998521      -0.000659497  -9.56495e-06
  24948.045       0.855732       0.860978       0.993638       0.998884      -0.000119659   7.61285e-06
  24982.635       0.856319       0.854239        1.00135       0.999274       9.4238e-05  -1.06838e-05
  25017.194       0.850565       0.84761        1.00264       0.999687      -0.000284611   2.50612e-06
  25051.977       0.839746       0.841045       0.998827        1.00013      -0.000360034   1.50831e-06
  25086.831       0.831882       0.834573       0.997899        1.00059      -7.94247e-05   6.22597e-06
  25126.390       0.829857       0.82736        1.00364        1.00115      -0.000163881  -1.14966e-05
  25166.142       0.820151       0.820251        1.00164        1.00174      -0.00019977   1.09463e-06
  25206.010       0.810513       0.810513       0.999616       0.999616      -0.000239421   7.16154e-06
  25246.004       0.804567       0.804567        1.0012        1.0012      -0.000131092  -1.71909e-06
  25286.125       0.798661       0.798661        1.00274        1.00274      -0.000177799  -3.24677e-06
  25327.747       0.7894       0.7894        1.00108        1.00108      -0.00018801   2.31656e-06
  25372.906       0.780413       0.780413        1.00021        1.00021      -0.000183415   4.52321e-06
  25418.139       0.773611       0.773612        1.0014        1.0014      -0.000179216  -1.7159e-06
  25463.684       0.76583       0.76583        1.00152        1.00152      -0.000187241  -2.97229e-06
  25509.401       0.75678       0.75678        1.00027        1.00027      -0.000162554   3.37172e-07
  25554.978       0.748804       0.748804       0.999914       0.999914      -0.000149266   1.66964e-06
  25603.125       0.740733       0.740733       0.999743       0.999743      -0.000171988   1.95437e-06
  25653.352       0.732067       0.732067       0.99915       0.99915      -0.000206461   1.09742e-06
  25704.031       0.723488       0.723488       0.998541       0.998541      -0.000188214  -1.48946e-06
  25754.534       0.715222       0.715222       0.998043       0.998043      -0.000164009  -1.93008e-06
  25805.248       0.706862       0.706862       0.997307       0.997307      -0.000155662  -1.66147e-06
  25856.113       0.698193       0.698193       0.996108       0.996108      -0.000148313  -2.75793e-07
  25863.562       0.697043       0.697043       0.996037       0.996037      -0.000154383  -8.15017e-07